Index	"SMU-1 Time (s)"	SMU-1 Voltage (V)	SMU-1 Current (A)	Resistance (Ohm)
1	 	-1.000000E+0	-1.555336E-4	1.555336E-4
2	 	-9.900000E-1	-1.499612E-4	1.514760E-4
3	 	-9.800000E-1	-1.448191E-4	1.477746E-4
4	 	-9.700000E-1	-1.395939E-4	1.439112E-4
5	 	-9.600000E-1	-1.346193E-4	1.402284E-4
6	 	-9.500000E-1	-1.296158E-4	1.364377E-4
7	 	-9.400000E-1	-1.250890E-4	1.330734E-4
8	 	-9.300000E-1	-1.203615E-4	1.294210E-4
9	 	-9.200000E-1	-1.156172E-4	1.256709E-4
10	 	-9.100000E-1	-1.112494E-4	1.222521E-4
11	 	-9.000000E-1	-1.069275E-4	1.188083E-4
12	 	-8.900000E-1	-1.026226E-4	1.153063E-4
13	 	-8.800000E-1	-9.842620E-5	1.118480E-4
14	 	-8.700000E-1	-9.419248E-5	1.082672E-4
15	 	-8.600000E-1	-9.009657E-5	1.047635E-4
16	 	-8.500000E-1	-8.619745E-5	1.014088E-4
17	 	-8.400000E-1	-8.229402E-5	9.796907E-5
18	 	-8.300000E-1	-7.840313E-5	9.446160E-5
19	 	-8.200000E-1	-7.467964E-5	9.107273E-5
20	 	-8.100000E-1	-7.119040E-5	8.788938E-5
21	 	-8.000000E-1	-6.753395E-5	8.441744E-5
22	 	-7.900000E-1	-6.422467E-5	8.129705E-5
23	 	-7.800000E-1	-6.096967E-5	7.816624E-5
24	 	-7.700000E-1	-5.787375E-5	7.516071E-5
25	 	-7.600000E-1	-5.480709E-5	7.211459E-5
26	 	-7.500000E-1	-5.178231E-5	6.904308E-5
27	 	-7.400000E-1	-4.890816E-5	6.609211E-5
28	 	-7.300000E-1	-4.638113E-5	6.353579E-5
29	 	-7.200000E-1	-4.358648E-5	6.053678E-5
30	 	-7.100000E-1	-4.126871E-5	5.812494E-5
31	 	-7.000000E-1	-3.901787E-5	5.573981E-5
32	 	-6.900000E-1	-3.685068E-5	5.340678E-5
33	 	-6.800000E-1	-3.490955E-5	5.133757E-5
34	 	-6.700000E-1	-3.297243E-5	4.921258E-5
35	 	-6.600000E-1	-3.098521E-5	4.694729E-5
36	 	-6.500000E-1	-2.945812E-5	4.532018E-5
37	 	-6.400000E-1	-2.753367E-5	4.302136E-5
38	 	-6.300000E-1	-2.617391E-5	4.154589E-5
39	 	-6.200000E-1	-2.486446E-5	4.010397E-5
40	 	-6.100000E-1	-2.355494E-5	3.861466E-5
41	 	-6.000000E-1	-2.251319E-5	3.752198E-5
42	 	-5.900000E-1	-2.146729E-5	3.638524E-5
43	 	-5.800000E-1	-2.054688E-5	3.542566E-5
44	 	-5.700000E-1	-1.978966E-5	3.471870E-5
45	 	-5.600000E-1	-1.977708E-5	3.531621E-5
46	 	-5.500000E-1	-1.956372E-5	3.557040E-5
47	 	-5.400000E-1	-1.958882E-5	3.627559E-5
48	 	-5.300000E-1	-1.972266E-5	3.721257E-5
49	 	-5.200000E-1	-1.940056E-5	3.730877E-5
50	 	-5.100000E-1	-1.859309E-5	3.645704E-5
51	 	-5.000000E-1	-1.731289E-5	3.462578E-5
52	 	-4.900000E-1	-1.612470E-5	3.290755E-5
53	 	-4.800000E-1	-1.471482E-5	3.065588E-5
54	 	-4.700000E-1	-1.338023E-5	2.846857E-5
55	 	-4.600000E-1	-1.228828E-5	2.671365E-5
56	 	-4.500000E-1	-1.108756E-5	2.463902E-5
57	 	-4.400000E-1	-9.945399E-6	2.260318E-5
58	 	-4.300000E-1	-8.656836E-6	2.013218E-5
59	 	-4.200000E-1	-7.564887E-6	1.801164E-5
60	 	-4.100000E-1	-6.460401E-6	1.575708E-5
61	 	-4.000000E-1	-5.100692E-6	1.275173E-5
62	 	-3.900000E-1	-3.812114E-6	9.774651E-6
63	 	-3.800000E-1	-2.180478E-6	5.738100E-6
64	 	-3.700000E-1	-8.040748E-7	2.173175E-6
65	 	-3.600000E-1	9.864220E-7	-2.740061E-6
66	 	-3.500000E-1	2.617950E-6	-7.479857E-6
67	 	-3.400000E-1	4.182545E-6	-1.230160E-5
68	 	-3.300000E-1	5.629994E-6	-1.706059E-5
69	 	-3.200000E-1	6.922667E-6	-2.163333E-5
70	 	-3.100000E-1	8.152580E-6	-2.629865E-5
71	 	-3.000000E-1	9.001813E-6	-3.000604E-5
72	 	-2.900000E-1	9.871947E-6	-3.404120E-5
73	 	-2.800000E-1	1.080486E-5	-3.858879E-5
74	 	-2.700000E-1	1.159134E-5	-4.293089E-5
75	 	-2.600000E-1	1.240289E-5	-4.770342E-5
76	 	-2.500000E-1	1.344040E-5	-5.376160E-5
77	 	-2.400000E-1	1.438167E-5	-5.992363E-5
78	 	-2.300000E-1	1.536059E-5	-6.678517E-5
79	 	-2.200000E-1	1.638131E-5	-7.446050E-5
80	 	-2.100000E-1	1.751085E-5	-8.338500E-5
81	 	-2.000000E-1	1.849393E-5	-9.246965E-5
82	 	-1.900000E-1	1.958999E-5	-1.031052E-4
83	 	-1.800000E-1	2.095796E-5	-1.164331E-4
84	 	-1.700000E-1	2.197454E-5	-1.292620E-4
85	 	-1.600000E-1	2.311240E-5	-1.444525E-4
86	 	-1.500000E-1	2.415405E-5	-1.610270E-4
87	 	-1.400000E-1	2.549278E-5	-1.820913E-4
88	 	-1.300000E-1	2.655118E-5	-2.042398E-4
89	 	-1.200000E-1	2.780615E-5	-2.317179E-4
90	 	-1.100000E-1	2.897755E-5	-2.634323E-4
91	 	-1.000000E-1	3.016144E-5	-3.016144E-4
92	 	-9.000000E-2	3.125751E-5	-3.473057E-4
93	 	-8.000000E-2	3.246232E-5	-4.057790E-4
94	 	-7.000000E-2	3.385538E-5	-4.836483E-4
95	 	-6.000000E-2	3.506019E-5	-5.843365E-4
96	 	-5.000000E-2	3.635290E-5	-7.270580E-4
97	 	-4.000000E-2	3.779194E-5	-9.447985E-4
98	 	-3.000000E-2	3.929378E-5	-1.309793E-3
99	 	-2.000000E-2	4.089601E-5	-2.044801E-3
100	 	-1.000000E-2	4.238116E-5	-4.238116E-3
101	 	7.528700E-16	4.389975E-5	5.830987E+10
102	 	1.000000E-2	4.525933E-5	4.525933E-3
103	 	2.000000E-2	4.678213E-5	2.339106E-3
104	 	3.000000E-2	4.807057E-5	1.602352E-3
105	 	4.000000E-2	4.921264E-5	1.230316E-3
106	 	5.000000E-2	5.026269E-5	1.005254E-3
107	 	6.000000E-2	5.083584E-5	8.472640E-4
108	 	7.000000E-2	5.143401E-5	7.347716E-4
109	 	8.000000E-2	5.189002E-5	6.486252E-4
110	 	9.000000E-2	5.213693E-5	5.792992E-4
111	 	1.000000E-1	5.204482E-5	5.204482E-4
112	 	1.100000E-1	5.195277E-5	4.722979E-4
113	 	1.200000E-1	5.191099E-5	4.325916E-4
114	 	1.300000E-1	5.169760E-5	3.976738E-4
115	 	1.400000E-1	5.154280E-5	3.681629E-4
116	 	1.500000E-1	5.145498E-5	3.430332E-4
117	 	1.600000E-1	5.106176E-5	3.191360E-4
118	 	1.700000E-1	5.086089E-5	2.991817E-4
119	 	1.800000E-1	5.048443E-5	2.804691E-4
120	 	1.900000E-1	5.030870E-5	2.647826E-4
121	 	2.000000E-1	4.994893E-5	2.497446E-4
122	 	2.100000E-1	4.990704E-5	2.376526E-4
123	 	2.200000E-1	4.960171E-5	2.254623E-4
124	 	2.300000E-1	4.940925E-5	2.148228E-4
125	 	2.400000E-1	4.915404E-5	2.048085E-4
126	 	2.500000E-1	4.914992E-5	1.965997E-4
127	 	2.600000E-1	4.901599E-5	1.885230E-4
128	 	2.700000E-1	4.889890E-5	1.811070E-4
129	 	2.800000E-1	4.912064E-5	1.754309E-4
130	 	2.900000E-1	4.917920E-5	1.695834E-4
131	 	3.000000E-1	4.930054E-5	1.643351E-4
132	 	3.100000E-1	4.936745E-5	1.592498E-4
133	 	3.200000E-1	4.952643E-5	1.547701E-4
134	 	3.300000E-1	4.956403E-5	1.501940E-4
135	 	3.400000E-1	4.995308E-5	1.469208E-4
136	 	3.500000E-1	5.021665E-5	1.434761E-4
137	 	3.600000E-1	5.048857E-5	1.402460E-4
138	 	3.700000E-1	5.080650E-5	1.373149E-4
139	 	3.800000E-1	5.109939E-5	1.344721E-4
140	 	3.900000E-1	5.143820E-5	1.318928E-4
141	 	4.000000E-1	5.182311E-5	1.295578E-4
142	 	4.100000E-1	5.224980E-5	1.274385E-4
143	 	4.200000E-1	5.276436E-5	1.256294E-4
144	 	4.300000E-1	5.300697E-5	1.232720E-4
145	 	4.400000E-1	5.340854E-5	1.213830E-4
146	 	4.500000E-1	5.386874E-5	1.197083E-4
147	 	4.600000E-1	5.417001E-5	1.177609E-4
148	 	4.700000E-1	5.462176E-5	1.162165E-4
149	 	4.800000E-1	5.524088E-5	1.150852E-4
150	 	4.900000E-1	5.550028E-5	1.132659E-4
151	 	5.000000E-1	5.598562E-5	1.119712E-4
152	 	5.100000E-1	5.627425E-5	1.103417E-4
153	 	5.200000E-1	5.682223E-5	1.092735E-4
154	 	5.300000E-1	5.708995E-5	1.077169E-4
155	 	5.400000E-1	5.772169E-5	1.068920E-4
156	 	5.500000E-1	5.793087E-5	1.053289E-4
157	 	5.600000E-1	5.854579E-5	1.045461E-4
158	 	5.700000E-1	5.873403E-5	1.030422E-4
159	 	5.800000E-1	5.904784E-5	1.018066E-4
160	 	5.900000E-1	5.955403E-5	1.009390E-4
161	 	6.000000E-1	6.002263E-5	1.000377E-4
162	 	6.100000E-1	6.033623E-5	9.891185E-5
163	 	6.200000E-1	6.061234E-5	9.776184E-5
164	 	6.300000E-1	6.101817E-5	9.685424E-5
165	 	6.400000E-1	6.141981E-5	9.596845E-5
166	 	6.500000E-1	6.190505E-5	9.523854E-5
167	 	6.600000E-1	6.224387E-5	9.430889E-5
168	 	6.700000E-1	6.276269E-5	9.367566E-5
169	 	6.800000E-1	6.303452E-5	9.269782E-5
170	 	6.900000E-1	6.354493E-5	9.209410E-5
171	 	7.000000E-1	6.391304E-5	9.130434E-5
172	 	7.100000E-1	6.445278E-5	9.077856E-5
173	 	7.200000E-1	6.487931E-5	9.011015E-5
174	 	7.300000E-1	6.538147E-5	8.956366E-5
175	 	7.400000E-1	6.595461E-5	8.912785E-5
176	 	7.500000E-1	6.627670E-5	8.836893E-5
177	 	7.600000E-1	6.703806E-5	8.820797E-5
178	 	7.700000E-1	6.730577E-5	8.741009E-5
179	 	7.800000E-1	6.796255E-5	8.713147E-5
180	 	7.900000E-1	6.848143E-5	8.668535E-5
181	 	8.000000E-1	6.917583E-5	8.646979E-5
182	 	8.100000E-1	6.969034E-5	8.603746E-5
183	 	8.200000E-1	7.040571E-5	8.586062E-5
184	 	8.300000E-1	7.123405E-5	8.582416E-5
185	 	8.400000E-1	7.178201E-5	8.545477E-5
186	 	8.500000E-1	7.255599E-5	8.535999E-5
187	 	8.600000E-1	7.324614E-5	8.516993E-5
188	 	8.700000E-1	7.394070E-5	8.498931E-5
189	 	8.800000E-1	7.489872E-5	8.511218E-5
190	 	8.900000E-1	7.575206E-5	8.511467E-5
191	 	9.000000E-1	7.653853E-5	8.504281E-5
192	 	9.100000E-1	7.736681E-5	8.501847E-5
193	 	9.200000E-1	7.829991E-5	8.510860E-5
194	 	9.300000E-1	7.942930E-5	8.540785E-5
195	 	9.400000E-1	8.036210E-5	8.549160E-5
196	 	9.500000E-1	8.134943E-5	8.563098E-5
197	 	9.600000E-1	8.243710E-5	8.587198E-5
198	 	9.700000E-1	8.364191E-5	8.622877E-5
199	 	9.800000E-1	8.485941E-5	8.659123E-5
200	 	9.900000E-1	8.607247E-5	8.694189E-5
201	 	9.800000E-1	7.896915E-5	8.058077E-5
202	 	9.700000E-1	7.284462E-5	7.509755E-5
203	 	9.600000E-1	6.735607E-5	7.016257E-5
204	 	9.500000E-1	6.244892E-5	6.573571E-5
205	 	9.400000E-1	5.797268E-5	6.167306E-5
206	 	9.300000E-1	5.406527E-5	5.813470E-5
207	 	9.200000E-1	5.057636E-5	5.497430E-5
208	 	9.100000E-1	4.740952E-5	5.209837E-5
209	 	9.000000E-1	4.453562E-5	4.948402E-5
210	 	8.900000E-1	4.200466E-5	4.719625E-5
211	 	8.800000E-1	3.973717E-5	4.515587E-5
212	 	8.700000E-1	3.775430E-5	4.339575E-5
213	 	8.600000E-1	3.591368E-5	4.176009E-5
214	 	8.500000E-1	3.414820E-5	4.017435E-5
215	 	8.400000E-1	3.269657E-5	3.892449E-5
216	 	8.300000E-1	3.128675E-5	3.769488E-5
217	 	8.200000E-1	3.005685E-5	3.665470E-5
218	 	8.100000E-1	2.900683E-5	3.581090E-5
219	 	8.000000E-1	2.776854E-5	3.471067E-5
220	 	7.900000E-1	2.678959E-5	3.391087E-5
221	 	7.800000E-1	2.593205E-5	3.324622E-5
222	 	7.700000E-1	2.505351E-5	3.253703E-5
223	 	7.600000E-1	2.428375E-5	3.195230E-5
224	 	7.500000E-1	2.355167E-5	3.140223E-5
225	 	7.400000E-1	2.280705E-5	3.082034E-5
226	 	7.300000E-1	2.215444E-5	3.034855E-5
227	 	7.200000E-1	2.161055E-5	3.001465E-5
228	 	7.100000E-1	2.104161E-5	2.963607E-5
229	 	7.000000E-1	2.046851E-5	2.924073E-5
230	 	6.900000E-1	1.979499E-5	2.868839E-5
231	 	6.800000E-1	1.927206E-5	2.834126E-5
232	 	6.700000E-1	1.861940E-5	2.779015E-5
233	 	6.600000E-1	1.810490E-5	2.743167E-5
234	 	6.500000E-1	1.748994E-5	2.690760E-5
235	 	6.400000E-1	1.690424E-5	2.641287E-5
236	 	6.300000E-1	1.610102E-5	2.555717E-5
237	 	6.200000E-1	1.564505E-5	2.523395E-5
238	 	6.100000E-1	1.487946E-5	2.439256E-5
239	 	6.000000E-1	1.419339E-5	2.365565E-5
240	 	5.900000E-1	1.349476E-5	2.287247E-5
241	 	5.800000E-1	1.278358E-5	2.204066E-5
242	 	5.700000E-1	1.213099E-5	2.128244E-5
243	 	5.600000E-1	1.155369E-5	2.063159E-5
244	 	5.500000E-1	1.088015E-5	1.978209E-5
245	 	5.400000E-1	1.008113E-5	1.866876E-5
246	 	5.300000E-1	9.445247E-6	1.782122E-5
247	 	5.200000E-1	8.796816E-6	1.691695E-5
248	 	5.100000E-1	8.064711E-6	1.581316E-5
249	 	5.000000E-1	7.583635E-6	1.516727E-5
250	 	4.900000E-1	6.905926E-6	1.409373E-5
251	 	4.800000E-1	6.332795E-6	1.319332E-5
252	 	4.700000E-1	5.671824E-6	1.206771E-5
253	 	4.600000E-1	5.286954E-6	1.149338E-5
254	 	4.500000E-1	4.776573E-6	1.061461E-5
255	 	4.400000E-1	4.354057E-6	9.895584E-6
256	 	4.300000E-1	3.839490E-6	8.929047E-6
257	 	4.200000E-1	3.513190E-6	8.364738E-6
258	 	4.100000E-1	3.358408E-6	8.191239E-6
259	 	4.000000E-1	2.956797E-6	7.391992E-6
260	 	3.900000E-1	2.551006E-6	6.541041E-6
261	 	3.800000E-1	2.316736E-6	6.096674E-6
262	 	3.700000E-1	2.216338E-6	5.990103E-6
263	 	3.600000E-1	1.915133E-6	5.319814E-6
264	 	3.500000E-1	1.818916E-6	5.196903E-6
265	 	3.400000E-1	1.731066E-6	5.091371E-6
266	 	3.300000E-1	1.551176E-6	4.700533E-6
267	 	3.200000E-1	1.346187E-6	4.206834E-6
268	 	3.100000E-1	1.166306E-6	3.762277E-6
269	 	3.000000E-1	1.078454E-6	3.594847E-6
270	 	2.900000E-1	1.137022E-6	3.920766E-6
271	 	2.800000E-1	1.053355E-6	3.761982E-6
272	 	2.700000E-1	1.019887E-6	3.777359E-6
273	 	2.600000E-1	8.274476E-7	3.182491E-6
274	 	2.500000E-1	9.780547E-7	3.912219E-6
275	 	2.400000E-1	9.989706E-7	4.162377E-6
276	 	2.300000E-1	1.275072E-6	5.543791E-6
277	 	2.200000E-1	1.429860E-6	6.499364E-6
278	 	2.100000E-1	1.488425E-6	7.087738E-6
279	 	2.000000E-1	1.375473E-6	6.877365E-6
280	 	1.900000E-1	1.111921E-6	5.852216E-6
281	 	1.800000E-1	5.555277E-7	3.086265E-6
282	 	1.700000E-1	-1.138137E-7	-6.694924E-7
283	 	1.600000E-1	-6.576548E-7	-4.110342E-6
284	 	1.500000E-1	-1.280983E-6	-8.539887E-6
285	 	1.400000E-1	-1.778841E-6	-1.270601E-5
286	 	1.300000E-1	-2.167925E-6	-1.667635E-5
287	 	1.200000E-1	-2.439865E-6	-2.033221E-5
288	 	1.100000E-1	-2.343643E-6	-2.130585E-5
289	 	1.000000E-1	-2.268333E-6	-2.268333E-5
290	 	9.000000E-2	-2.339458E-6	-2.599398E-5
291	 	8.000000E-2	-2.431497E-6	-3.039371E-5
292	 	7.000000E-2	-2.619764E-6	-3.742520E-5
293	 	6.000000E-2	-2.824764E-6	-4.707940E-5
294	 	5.000000E-2	-3.205481E-6	-6.410962E-5
295	 	4.000000E-2	-3.209664E-6	-8.024160E-5
296	 	3.000000E-2	-3.506709E-6	-1.168903E-4
297	 	2.000000E-2	-3.690790E-6	-1.845395E-4
298	 	1.000000E-2	-4.084053E-6	-4.084053E-4
299	 	6.904199E-16	-4.397829E-6	-6.369788E+9
300	 	-1.000000E-2	-4.560998E-6	4.560998E-4
301	 	-2.000000E-2	-4.920792E-6	2.460396E-4
302	 	-3.000000E-2	-5.121607E-6	1.707202E-4
303	 	-4.000000E-2	-5.406099E-6	1.351525E-4
304	 	-5.000000E-2	-5.686402E-6	1.137280E-4
305	 	-6.000000E-2	-5.757529E-6	9.595882E-5
306	 	-7.000000E-2	-6.083855E-6	8.691221E-5
307	 	-8.000000E-2	-6.334875E-6	7.918594E-5
308	 	-9.000000E-2	-6.410182E-6	7.122424E-5
309	 	-1.000000E-1	-6.405997E-6	6.405997E-5
310	 	-1.100000E-1	-6.146611E-6	5.587828E-5
311	 	-1.200000E-1	-5.765897E-6	4.804914E-5
312	 	-1.300000E-1	-5.598546E-6	4.306574E-5
313	 	-1.400000E-1	-5.498146E-6	3.927247E-5
314	 	-1.500000E-1	-5.393550E-6	3.595700E-5
315	 	-1.600000E-1	-5.523242E-6	3.452026E-5
316	 	-1.700000E-1	-5.598547E-6	3.293263E-5
317	 	-1.800000E-1	-5.816097E-6	3.231165E-5
318	 	-1.900000E-1	-6.042019E-6	3.180010E-5
319	 	-2.000000E-1	-6.297225E-6	3.148613E-5
320	 	-2.100000E-1	-6.778349E-6	3.227785E-5
321	 	-2.200000E-1	-7.142326E-6	3.246512E-5
322	 	-2.300000E-1	-7.518861E-6	3.269070E-5
323	 	-2.400000E-1	-8.071108E-6	3.362962E-5
324	 	-2.500000E-1	-8.485297E-6	3.394119E-5
325	 	-2.600000E-1	-9.071004E-6	3.488848E-5
326	 	-2.700000E-1	-9.610697E-6	3.559517E-5
327	 	-2.800000E-1	-1.004997E-5	3.589275E-5
328	 	-2.900000E-1	-1.051438E-5	3.625648E-5
329	 	-3.000000E-1	-1.098295E-5	3.660983E-5
330	 	-3.100000E-1	-1.134276E-5	3.658955E-5
331	 	-3.200000E-1	-1.193265E-5	3.728953E-5
332	 	-3.300000E-1	-1.253509E-5	3.798512E-5
333	 	-3.400000E-1	-1.294511E-5	3.807385E-5
334	 	-3.500000E-1	-1.371490E-5	3.918543E-5
335	 	-3.600000E-1	-1.460184E-5	4.056067E-5
336	 	-3.700000E-1	-1.553898E-5	4.199724E-5
337	 	-3.800000E-1	-1.675644E-5	4.409589E-5
338	 	-3.900000E-1	-1.815377E-5	4.654813E-5
339	 	-4.000000E-1	-1.979381E-5	4.948453E-5
340	 	-4.100000E-1	-2.153006E-5	5.251234E-5
341	 	-4.200000E-1	-2.381433E-5	5.670079E-5
342	 	-4.300000E-1	-2.587687E-5	6.017877E-5
343	 	-4.400000E-1	-2.813189E-5	6.393611E-5
344	 	-4.500000E-1	-3.043291E-5	6.762869E-5
345	 	-4.600000E-1	-3.285944E-5	7.143357E-5
346	 	-4.700000E-1	-3.511447E-5	7.471164E-5
347	 	-4.800000E-1	-3.760790E-5	7.834979E-5
348	 	-4.900000E-1	-3.989641E-5	8.142124E-5
349	 	-5.000000E-1	-4.201330E-5	8.402660E-5
350	 	-5.100000E-1	-4.430602E-5	8.687455E-5
351	 	-5.200000E-1	-4.628910E-5	8.901750E-5
352	 	-5.300000E-1	-4.830978E-5	9.115053E-5
353	 	-5.400000E-1	-5.024685E-5	9.304972E-5
354	 	-5.500000E-1	-5.206675E-5	9.466682E-5
355	 	-5.600000E-1	-5.380715E-5	9.608420E-5
356	 	-5.700000E-1	-5.512508E-5	9.671067E-5
357	 	-5.800000E-1	-5.681939E-5	9.796447E-5
358	 	-5.900000E-1	-5.827953E-5	9.877886E-5
359	 	-6.000000E-1	-5.955550E-5	9.925917E-5
360	 	-6.100000E-1	-6.079395E-5	9.966221E-5
361	 	-6.200000E-1	-6.217038E-5	1.002748E-4
362	 	-6.300000E-1	-6.329994E-5	1.004761E-4
363	 	-6.400000E-1	-6.440438E-5	1.006318E-4
364	 	-6.500000E-1	-6.560930E-5	1.009374E-4
365	 	-6.600000E-1	-6.670130E-5	1.010626E-4
366	 	-6.700000E-1	-6.778484E-5	1.011714E-4
367	 	-6.800000E-1	-6.890611E-5	1.013325E-4
368	 	-6.900000E-1	-7.008173E-5	1.015677E-4
369	 	-7.000000E-1	-7.129915E-5	1.018559E-4
370	 	-7.100000E-1	-7.241205E-5	1.019888E-4
371	 	-7.200000E-1	-7.385115E-5	1.025710E-4
372	 	-7.300000E-1	-7.520671E-5	1.030229E-4
373	 	-7.400000E-1	-7.668778E-5	1.036321E-4
374	 	-7.500000E-1	-7.818132E-5	1.042418E-4
375	 	-7.600000E-1	-7.997196E-5	1.052263E-4
376	 	-7.700000E-1	-8.192141E-5	1.063914E-4
377	 	-7.800000E-1	-8.397151E-5	1.076558E-4
378	 	-7.900000E-1	-8.596705E-5	1.088191E-4
379	 	-8.000000E-1	-8.831845E-5	1.103981E-4
380	 	-8.100000E-1	-9.064864E-5	1.119119E-4
381	 	-8.200000E-1	-9.331788E-5	1.138023E-4
382	 	-8.300000E-1	-9.604990E-5	1.157228E-4
383	 	-8.400000E-1	-9.886119E-5	1.176919E-4
384	 	-8.500000E-1	-1.017689E-4	1.197281E-4
385	 	-8.600000E-1	-1.045887E-4	1.216148E-4
386	 	-8.700000E-1	-1.077263E-4	1.238233E-4
387	 	-8.800000E-1	-1.109228E-4	1.260486E-4
388	 	-8.900000E-1	-1.141401E-4	1.282473E-4
389	 	-9.000000E-1	-1.176125E-4	1.306806E-4
390	 	-9.100000E-1	-1.212649E-4	1.332581E-4
391	 	-9.200000E-1	-1.252520E-4	1.361435E-4
392	 	-9.300000E-1	-1.296114E-4	1.393671E-4
393	 	-9.400000E-1	-1.344060E-4	1.429851E-4
394	 	-9.500000E-1	-1.395936E-4	1.469406E-4
395	 	-9.600000E-1	-1.454172E-4	1.514763E-4
396	 	-9.700000E-1	-1.516510E-4	1.563412E-4
397	 	-9.800000E-1	-1.584368E-4	1.616702E-4
398	 	-9.900000E-1	-1.657166E-4	1.673905E-4
399	 	-1.000000E+0	-1.735987E-4	1.735987E-4
400	 	-9.900000E-1	-1.680217E-4	1.697189E-4
401	 	-9.800000E-1	-1.626415E-4	1.659607E-4
