Index	"SMU-1 Time (s)"	SMU-1 Voltage (V)	SMU-1 Current (A)	Resistance (Ohm)
1	 	-1.000000E+0	-2.434021E-4	2.434021E-4
2	 	-9.900000E-1	-2.372897E-4	2.396866E-4
3	 	-9.800000E-1	-2.304037E-4	2.351058E-4
4	 	-9.700000E-1	-2.232994E-4	2.302056E-4
5	 	-9.600000E-1	-2.158442E-4	2.248377E-4
6	 	-9.500000E-1	-2.083557E-4	2.193218E-4
7	 	-9.400000E-1	-2.007578E-4	2.135721E-4
8	 	-9.300000E-1	-1.930099E-4	2.075375E-4
9	 	-9.200000E-1	-1.853918E-4	2.015128E-4
10	 	-9.100000E-1	-1.775890E-4	1.951527E-4
11	 	-9.000000E-1	-1.699454E-4	1.888282E-4
12	 	-8.900000E-1	-1.626656E-4	1.827703E-4
13	 	-8.800000E-1	-1.551647E-4	1.763235E-4
14	 	-8.700000E-1	-1.485709E-4	1.707711E-4
15	 	-8.600000E-1	-1.414254E-4	1.644481E-4
16	 	-8.500000E-1	-1.343467E-4	1.580549E-4
17	 	-8.400000E-1	-1.277697E-4	1.521068E-4
18	 	-8.300000E-1	-1.213102E-4	1.461569E-4
19	 	-8.200000E-1	-1.152188E-4	1.405107E-4
20	 	-8.100000E-1	-1.093619E-4	1.350147E-4
21	 	-8.000000E-1	-1.039147E-4	1.298934E-4
22	 	-7.900000E-1	-9.865978E-5	1.248858E-4
23	 	-7.800000E-1	-9.362280E-5	1.200292E-4
24	 	-7.700000E-1	-8.892456E-5	1.154864E-4
25	 	-7.600000E-1	-8.443961E-5	1.111048E-4
26	 	-7.500000E-1	-8.036483E-5	1.071531E-4
27	 	-7.400000E-1	-7.669571E-5	1.036429E-4
28	 	-7.300000E-1	-7.313529E-5	1.001853E-4
29	 	-7.200000E-1	-6.950407E-5	9.653343E-5
30	 	-7.100000E-1	-6.630764E-5	9.339104E-5
31	 	-7.000000E-1	-6.334555E-5	9.049364E-5
32	 	-6.900000E-1	-6.066814E-5	8.792484E-5
33	 	-6.800000E-1	-5.862221E-5	8.620913E-5
34	 	-6.700000E-1	-5.652211E-5	8.436136E-5
35	 	-6.600000E-1	-5.472309E-5	8.291377E-5
36	 	-6.500000E-1	-5.312074E-5	8.172422E-5
37	 	-6.400000E-1	-5.219613E-5	8.155645E-5
38	 	-6.300000E-1	-5.152677E-5	8.178852E-5
39	 	-6.200000E-1	-5.099127E-5	8.224398E-5
40	 	-6.100000E-1	-5.007088E-5	8.208341E-5
41	 	-6.000000E-1	-4.891190E-5	8.151983E-5
42	 	-5.900000E-1	-4.705442E-5	7.975325E-5
43	 	-5.800000E-1	-4.500438E-5	7.759376E-5
44	 	-5.700000E-1	-4.266153E-5	7.484479E-5
45	 	-5.600000E-1	-4.010955E-5	7.162420E-5
46	 	-5.500000E-1	-3.765376E-5	6.846138E-5
47	 	-5.400000E-1	-3.521048E-5	6.520459E-5
48	 	-5.300000E-1	-3.276723E-5	6.182496E-5
49	 	-5.200000E-1	-3.045786E-5	5.857281E-5
50	 	-5.100000E-1	-2.835349E-5	5.559508E-5
51	 	-5.000000E-1	-2.637460E-5	5.274920E-5
52	 	-4.900000E-1	-2.442083E-5	4.983843E-5
53	 	-4.800000E-1	-2.283099E-5	4.756456E-5
54	 	-4.700000E-1	-2.086470E-5	4.439298E-5
55	 	-4.600000E-1	-1.937114E-5	4.211117E-5
56	 	-4.500000E-1	-1.764749E-5	3.921664E-5
57	 	-4.400000E-1	-1.605350E-5	3.648523E-5
58	 	-4.300000E-1	-1.473144E-5	3.425916E-5
59	 	-4.200000E-1	-1.308726E-5	3.116014E-5
60	 	-4.100000E-1	-1.160206E-5	2.829771E-5
61	 	-4.000000E-1	-9.895137E-6	2.473784E-5
62	 	-3.900000E-1	-8.037603E-6	2.060924E-5
63	 	-3.800000E-1	-6.104743E-6	1.606511E-5
64	 	-3.700000E-1	-4.058937E-6	1.097010E-5
65	 	-3.600000E-1	-1.787206E-6	4.964461E-6
66	 	-3.500000E-1	3.588965E-7	-1.025419E-6
67	 	-3.400000E-1	2.655570E-6	-7.810500E-6
68	 	-3.300000E-1	5.077746E-6	-1.538711E-5
69	 	-3.200000E-1	7.558486E-6	-2.362027E-5
70	 	-3.100000E-1	9.947180E-6	-3.208768E-5
71	 	-3.000000E-1	1.247392E-5	-4.157973E-5
72	 	-2.900000E-1	1.502578E-5	-5.181303E-5
73	 	-2.800000E-1	1.748565E-5	-6.244875E-5
74	 	-2.700000E-1	1.974467E-5	-7.312841E-5
75	 	-2.600000E-1	2.185723E-5	-8.406627E-5
76	 	-2.500000E-1	2.396567E-5	-9.586268E-5
77	 	-2.400000E-1	2.587748E-5	-1.078228E-4
78	 	-2.300000E-1	2.775158E-5	-1.206590E-4
79	 	-2.200000E-1	2.939990E-5	-1.336359E-4
80	 	-2.100000E-1	3.085149E-5	-1.469119E-4
81	 	-2.000000E-1	3.224876E-5	-1.612438E-4
82	 	-1.900000E-1	3.297666E-5	-1.735614E-4
83	 	-1.800000E-1	3.403504E-5	-1.890836E-4
84	 	-1.700000E-1	3.489263E-5	-2.052508E-4
85	 	-1.600000E-1	3.564981E-5	-2.228113E-4
86	 	-1.500000E-1	3.659109E-5	-2.439406E-4
87	 	-1.400000E-1	3.749885E-5	-2.678489E-4
88	 	-1.300000E-1	3.857823E-5	-2.967556E-4
89	 	-1.200000E-1	3.995446E-5	-3.329538E-4
90	 	-1.100000E-1	4.155677E-5	-3.777888E-4
91	 	-1.000000E-1	4.338491E-5	-4.338491E-4
92	 	-9.000000E-2	4.519207E-5	-5.021341E-4
93	 	-8.000000E-2	4.685707E-5	-5.857134E-4
94	 	-7.000000E-2	4.913286E-5	-7.018980E-4
95	 	-6.000000E-2	5.099440E-5	-8.499067E-4
96	 	-5.000000E-2	5.310286E-5	-1.062057E-3
97	 	-4.000000E-2	5.481787E-5	-1.370447E-3
98	 	-3.000000E-2	5.665021E-5	-1.888340E-3
99	 	-2.000000E-2	5.845746E-5	-2.922873E-3
100	 	-1.000000E-2	6.018946E-5	-6.018946E-3
101	 	7.528700E-16	6.162439E-5	8.185263E+10
102	 	1.000000E-2	6.278734E-5	6.278734E-3
103	 	2.000000E-2	6.391268E-5	3.195634E-3
104	 	3.000000E-2	6.523046E-5	2.174349E-3
105	 	4.000000E-2	6.650634E-5	1.662658E-3
106	 	5.000000E-2	6.799567E-5	1.359913E-3
107	 	6.000000E-2	6.934677E-5	1.155779E-3
108	 	7.000000E-2	7.029650E-5	1.004236E-3
109	 	8.000000E-2	7.111234E-5	8.889042E-4
110	 	9.000000E-2	7.150962E-5	7.945513E-4
111	 	1.000000E-1	7.155992E-5	7.155992E-4
112	 	1.100000E-1	7.133397E-5	6.484906E-4
113	 	1.200000E-1	7.068140E-5	5.890117E-4
114	 	1.300000E-1	6.997431E-5	5.382639E-4
115	 	1.400000E-1	6.906236E-5	4.933026E-4
116	 	1.500000E-1	6.832180E-5	4.554787E-4
117	 	1.600000E-1	6.762751E-5	4.226719E-4
118	 	1.700000E-1	6.723426E-5	3.954956E-4
119	 	1.800000E-1	6.671127E-5	3.706182E-4
120	 	1.900000E-1	6.647290E-5	3.498574E-4
121	 	2.000000E-1	6.638909E-5	3.319454E-4
122	 	2.100000E-1	6.638505E-5	3.161193E-4
123	 	2.200000E-1	6.650205E-5	3.022820E-4
124	 	2.300000E-1	6.686613E-5	2.907223E-4
125	 	2.400000E-1	6.736814E-5	2.807006E-4
126	 	2.500000E-1	6.764005E-5	2.705602E-4
127	 	2.600000E-1	6.844327E-5	2.632433E-4
128	 	2.700000E-1	6.869001E-5	2.544074E-4
129	 	2.800000E-1	6.929673E-5	2.474883E-4
130	 	2.900000E-1	6.995761E-5	2.412331E-4
131	 	3.000000E-1	7.066881E-5	2.355627E-4
132	 	3.100000E-1	7.137581E-5	2.302445E-4
133	 	3.200000E-1	7.202408E-5	2.250752E-4
134	 	3.300000E-1	7.296129E-5	2.210948E-4
135	 	3.400000E-1	7.353855E-5	2.162899E-4
136	 	3.500000E-1	7.415758E-5	2.118788E-4
137	 	3.600000E-1	7.481448E-5	2.078180E-4
138	 	3.700000E-1	7.553405E-5	2.041461E-4
139	 	3.800000E-1	7.619913E-5	2.005240E-4
140	 	3.900000E-1	7.680566E-5	1.969376E-4
141	 	4.000000E-1	7.762992E-5	1.940748E-4
142	 	4.100000E-1	7.817787E-5	1.906777E-4
143	 	4.200000E-1	7.891006E-5	1.878811E-4
144	 	4.300000E-1	7.932415E-5	1.844748E-4
145	 	4.400000E-1	7.996836E-5	1.817463E-4
146	 	4.500000E-1	8.047459E-5	1.788324E-4
147	 	4.600000E-1	8.098474E-5	1.760538E-4
148	 	4.700000E-1	8.158312E-5	1.735811E-4
149	 	4.800000E-1	8.198042E-5	1.707925E-4
150	 	4.900000E-1	8.261647E-5	1.686050E-4
151	 	5.000000E-1	8.307253E-5	1.661451E-4
152	 	5.100000E-1	8.351586E-5	1.637566E-4
153	 	5.200000E-1	8.408062E-5	1.616935E-4
154	 	5.300000E-1	8.463280E-5	1.596845E-4
155	 	5.400000E-1	8.500108E-5	1.574094E-4
156	 	5.500000E-1	8.522686E-5	1.549579E-4
157	 	5.600000E-1	8.579998E-5	1.532142E-4
158	 	5.700000E-1	8.609697E-5	1.510473E-4
159	 	5.800000E-1	8.663251E-5	1.493664E-4
160	 	5.900000E-1	8.704679E-5	1.475369E-4
161	 	6.000000E-1	8.746083E-5	1.457680E-4
162	 	6.100000E-1	8.775769E-5	1.438651E-4
163	 	6.200000E-1	8.818868E-5	1.422398E-4
164	 	6.300000E-1	8.845644E-5	1.404070E-4
165	 	6.400000E-1	8.887903E-5	1.388735E-4
166	 	6.500000E-1	8.913001E-5	1.371231E-4
167	 	6.600000E-1	8.947299E-5	1.355651E-4
168	 	6.700000E-1	8.993308E-5	1.342285E-4
169	 	6.800000E-1	9.036821E-5	1.328944E-4
170	 	6.900000E-1	9.058136E-5	1.312773E-4
171	 	7.000000E-1	9.107949E-5	1.301136E-4
172	 	7.100000E-1	9.151877E-5	1.288997E-4
173	 	7.200000E-1	9.198311E-5	1.277543E-4
174	 	7.300000E-1	9.242217E-5	1.266057E-4
175	 	7.400000E-1	9.300376E-5	1.256808E-4
176	 	7.500000E-1	9.358523E-5	1.247803E-4
177	 	7.600000E-1	9.407460E-5	1.237824E-4
178	 	7.700000E-1	9.481518E-5	1.231366E-4
179	 	7.800000E-1	9.539229E-5	1.222978E-4
180	 	7.900000E-1	9.618317E-5	1.217508E-4
181	 	8.000000E-1	9.690254E-5	1.211282E-4
182	 	8.100000E-1	9.770572E-5	1.206243E-4
183	 	8.200000E-1	9.864291E-5	1.202962E-4
184	 	8.300000E-1	9.978082E-5	1.202179E-4
185	 	8.400000E-1	1.005002E-4	1.196431E-4
186	 	8.500000E-1	1.013078E-4	1.191856E-4
187	 	8.600000E-1	1.023075E-4	1.189622E-4
188	 	8.700000E-1	1.033031E-4	1.187392E-4
189	 	8.800000E-1	1.045123E-4	1.187640E-4
190	 	8.900000E-1	1.056334E-4	1.186892E-4
191	 	9.000000E-1	1.070977E-4	1.189974E-4
192	 	9.100000E-1	1.081643E-4	1.188619E-4
193	 	9.200000E-1	1.093984E-4	1.189113E-4
194	 	9.300000E-1	1.108583E-4	1.192025E-4
195	 	9.400000E-1	1.123016E-4	1.194698E-4
196	 	9.500000E-1	1.138997E-4	1.198944E-4
197	 	9.600000E-1	1.153554E-4	1.201619E-4
198	 	9.700000E-1	1.170456E-4	1.206656E-4
199	 	9.800000E-1	1.186812E-4	1.211033E-4
200	 	9.900000E-1	1.205304E-4	1.217479E-4
201	 	9.800000E-1	1.114776E-4	1.137527E-4
202	 	9.700000E-1	1.035039E-4	1.067051E-4
203	 	9.600000E-1	9.644248E-5	1.004609E-4
204	 	9.500000E-1	9.019260E-5	9.493958E-5
205	 	9.400000E-1	8.462866E-5	9.003049E-5
206	 	9.300000E-1	7.978432E-5	8.578959E-5
207	 	9.200000E-1	7.558004E-5	8.215222E-5
208	 	9.100000E-1	7.179828E-5	7.889921E-5
209	 	9.000000E-1	6.841394E-5	7.601549E-5
210	 	8.900000E-1	6.543956E-5	7.352760E-5
211	 	8.800000E-1	6.273302E-5	7.128752E-5
212	 	8.700000E-1	6.033590E-5	6.935161E-5
213	 	8.600000E-1	5.826095E-5	6.774529E-5
214	 	8.500000E-1	5.625706E-5	6.618478E-5
215	 	8.400000E-1	5.471761E-5	6.514001E-5
216	 	8.300000E-1	5.305251E-5	6.391869E-5
217	 	8.200000E-1	5.164281E-5	6.297904E-5
218	 	8.100000E-1	5.040031E-5	6.222260E-5
219	 	8.000000E-1	4.923742E-5	6.154677E-5
220	 	7.900000E-1	4.793218E-5	6.067365E-5
221	 	7.800000E-1	4.680255E-5	6.000327E-5
222	 	7.700000E-1	4.579031E-5	5.946794E-5
223	 	7.600000E-1	4.474032E-5	5.886884E-5
224	 	7.500000E-1	4.369858E-5	5.826477E-5
225	 	7.400000E-1	4.254816E-5	5.749751E-5
226	 	7.300000E-1	4.144380E-5	5.677233E-5
227	 	7.200000E-1	4.026819E-5	5.592804E-5
228	 	7.100000E-1	3.928933E-5	5.533708E-5
229	 	7.000000E-1	3.810545E-5	5.443636E-5
230	 	6.900000E-1	3.693824E-5	5.353368E-5
231	 	6.800000E-1	3.560374E-5	5.235844E-5
232	 	6.700000E-1	3.461233E-5	5.166019E-5
233	 	6.600000E-1	3.315234E-5	5.023082E-5
234	 	6.500000E-1	3.184286E-5	4.898902E-5
235	 	6.400000E-1	3.073437E-5	4.802245E-5
236	 	6.300000E-1	2.924085E-5	4.641405E-5
237	 	6.200000E-1	2.804447E-5	4.523302E-5
238	 	6.100000E-1	2.652585E-5	4.348500E-5
239	 	6.000000E-1	2.530013E-5	4.216688E-5
240	 	5.900000E-1	2.395310E-5	4.059847E-5
241	 	5.800000E-1	2.262280E-5	3.900483E-5
242	 	5.700000E-1	2.121296E-5	3.721572E-5
243	 	5.600000E-1	1.998726E-5	3.569154E-5
244	 	5.500000E-1	1.867785E-5	3.395973E-5
245	 	5.400000E-1	1.745215E-5	3.231880E-5
246	 	5.300000E-1	1.619294E-5	3.055272E-5
247	 	5.200000E-1	1.498815E-5	2.882337E-5
248	 	5.100000E-1	1.361595E-5	2.669794E-5
249	 	5.000000E-1	1.264544E-5	2.529088E-5
250	 	4.900000E-1	1.162888E-5	2.373241E-5
251	 	4.800000E-1	1.057469E-5	2.203060E-5
252	 	4.700000E-1	9.633431E-6	2.049666E-5
253	 	4.600000E-1	8.704719E-6	1.892330E-5
254	 	4.500000E-1	7.947525E-6	1.766117E-5
255	 	4.400000E-1	7.089936E-6	1.611349E-5
256	 	4.300000E-1	6.462418E-6	1.502888E-5
257	 	4.200000E-1	5.998089E-6	1.428116E-5
258	 	4.100000E-1	5.341286E-6	1.302753E-5
259	 	4.000000E-1	4.931323E-6	1.232831E-5
260	 	3.900000E-1	4.554819E-6	1.167902E-5
261	 	3.800000E-1	4.115564E-6	1.083043E-5
262	 	3.700000E-1	3.877112E-6	1.047868E-5
263	 	3.600000E-1	3.672125E-6	1.020035E-5
264	 	3.500000E-1	3.429490E-6	9.798543E-6
265	 	3.400000E-1	3.165943E-6	9.311597E-6
266	 	3.300000E-1	2.860556E-6	8.668352E-6
267	 	3.200000E-1	2.822902E-6	8.821569E-6
268	 	3.100000E-1	2.592817E-6	8.363926E-6
269	 	3.000000E-1	2.513332E-6	8.377773E-6
270	 	2.900000E-1	2.504970E-6	8.637828E-6
271	 	2.800000E-1	2.634644E-6	9.409443E-6
272	 	2.700000E-1	3.149204E-6	1.166372E-5
273	 	2.600000E-1	3.885473E-6	1.494413E-5
274	 	2.500000E-1	4.822553E-6	1.929021E-5
275	 	2.400000E-1	5.575557E-6	2.323149E-5
276	 	2.300000E-1	5.219970E-6	2.269552E-5
277	 	2.200000E-1	4.328916E-6	1.967689E-5
278	 	2.100000E-1	3.425308E-6	1.631099E-5
279	 	2.000000E-1	2.651381E-6	1.325690E-5
280	 	1.900000E-1	1.977859E-6	1.040978E-5
281	 	1.800000E-1	1.162103E-6	6.456128E-6
282	 	1.700000E-1	6.475517E-7	3.809128E-6
283	 	1.600000E-1	2.208471E-7	1.380294E-6
284	 	1.500000E-1	-3.146241E-7	-2.097494E-6
285	 	1.400000E-1	-6.618436E-7	-4.727454E-6
286	 	1.300000E-1	-8.040776E-7	-6.185212E-6
287	 	1.200000E-1	-1.251698E-6	-1.043082E-5
288	 	1.100000E-1	-1.410677E-6	-1.282434E-5
289	 	1.000000E-1	-1.628227E-6	-1.628227E-5
290	 	9.000000E-2	-2.000573E-6	-2.222859E-5
291	 	8.000000E-2	-2.213939E-6	-2.767424E-5
292	 	7.000000E-2	-2.490060E-6	-3.557229E-5
293	 	6.000000E-2	-2.837300E-6	-4.728833E-5
294	 	5.000000E-2	-3.113421E-6	-6.226842E-5
295	 	4.000000E-2	-3.435566E-6	-8.588915E-5
296	 	3.000000E-2	-3.715874E-6	-1.238625E-4
297	 	2.000000E-2	-4.046381E-6	-2.023190E-4
298	 	1.000000E-2	-4.489848E-6	-4.489848E-4
299	 	6.904199E-16	-4.745055E-6	-6.872708E+9
300	 	-1.000000E-2	-5.263817E-6	5.263817E-4
301	 	-2.000000E-2	-5.406066E-6	2.703033E-4
302	 	-3.000000E-2	-5.744948E-6	1.914983E-4
303	 	-4.000000E-2	-6.129847E-6	1.532462E-4
304	 	-5.000000E-2	-6.313928E-6	1.262786E-4
305	 	-6.000000E-2	-6.539839E-6	1.089973E-4
306	 	-7.000000E-2	-6.728100E-6	9.611571E-5
307	 	-8.000000E-2	-6.677904E-6	8.347380E-5
308	 	-9.000000E-2	-6.564938E-6	7.294376E-5
309	 	-1.000000E-1	-6.393412E-6	6.393412E-5
310	 	-1.100000E-1	-6.238624E-6	5.671476E-5
311	 	-1.200000E-1	-6.108925E-6	5.090771E-5
312	 	-1.300000E-1	-6.188407E-6	4.760313E-5
313	 	-1.400000E-1	-6.276271E-6	4.483051E-5
314	 	-1.500000E-1	-6.602598E-6	4.401732E-5
315	 	-1.600000E-1	-6.887095E-6	4.304434E-5
316	 	-1.700000E-1	-7.276165E-6	4.280097E-5
317	 	-1.800000E-1	-7.861878E-6	4.367710E-5
318	 	-1.900000E-1	-8.330431E-6	4.384437E-5
319	 	-2.000000E-1	-8.811570E-6	4.405785E-5
320	 	-2.100000E-1	-9.464220E-6	4.506771E-5
321	 	-2.200000E-1	-1.001645E-5	4.552932E-5
322	 	-2.300000E-1	-1.054777E-5	4.585987E-5
323	 	-2.400000E-1	-1.095360E-5	4.564000E-5
324	 	-2.500000E-1	-1.148492E-5	4.593968E-5
325	 	-2.600000E-1	-1.215430E-5	4.674731E-5
326	 	-2.700000E-1	-1.240533E-5	4.594567E-5
327	 	-2.800000E-1	-1.301616E-5	4.648629E-5
328	 	-2.900000E-1	-1.361022E-5	4.693179E-5
329	 	-3.000000E-1	-1.438418E-5	4.794727E-5
330	 	-3.100000E-1	-1.499083E-5	4.835752E-5
331	 	-3.200000E-1	-1.604094E-5	5.012794E-5
332	 	-3.300000E-1	-1.707011E-5	5.172761E-5
333	 	-3.400000E-1	-1.812437E-5	5.330697E-5
334	 	-3.500000E-1	-1.924561E-5	5.498746E-5
335	 	-3.600000E-1	-2.073498E-5	5.759717E-5
336	 	-3.700000E-1	-2.249208E-5	6.078941E-5
337	 	-3.800000E-1	-2.429949E-5	6.394603E-5
338	 	-3.900000E-1	-2.667997E-5	6.841018E-5
339	 	-4.000000E-1	-2.921521E-5	7.303803E-5
340	 	-4.100000E-1	-3.200575E-5	7.806280E-5
341	 	-4.200000E-1	-3.506405E-5	8.348583E-5
342	 	-4.300000E-1	-3.815565E-5	8.873407E-5
343	 	-4.400000E-1	-4.093361E-5	9.303093E-5
344	 	-4.500000E-1	-4.348993E-5	9.664429E-5
345	 	-4.600000E-1	-4.610470E-5	1.002276E-4
346	 	-4.700000E-1	-4.849770E-5	1.031866E-4
347	 	-4.800000E-1	-5.094092E-5	1.061269E-4
348	 	-4.900000E-1	-5.288640E-5	1.079314E-4
349	 	-5.000000E-1	-5.517905E-5	1.103581E-4
350	 	-5.100000E-1	-5.734606E-5	1.124433E-4
351	 	-5.200000E-1	-5.916183E-5	1.137728E-4
352	 	-5.300000E-1	-6.078518E-5	1.146890E-4
353	 	-5.400000E-1	-6.279332E-5	1.162839E-4
354	 	-5.500000E-1	-6.432867E-5	1.169612E-4
355	 	-5.600000E-1	-6.589756E-5	1.176742E-4
356	 	-5.700000E-1	-6.743715E-5	1.183108E-4
357	 	-5.800000E-1	-6.899349E-5	1.189543E-4
358	 	-5.900000E-1	-7.053309E-5	1.195476E-4
359	 	-6.000000E-1	-7.192623E-5	1.198771E-4
360	 	-6.100000E-1	-7.353255E-5	1.205452E-4
361	 	-6.200000E-1	-7.475446E-5	1.205717E-4
362	 	-6.300000E-1	-7.633988E-5	1.211744E-4
363	 	-6.400000E-1	-7.768294E-5	1.213796E-4
364	 	-6.500000E-1	-7.911788E-5	1.217198E-4
365	 	-6.600000E-1	-8.043586E-5	1.218725E-4
366	 	-6.700000E-1	-8.195858E-5	1.223262E-4
367	 	-6.800000E-1	-8.341037E-5	1.226623E-4
368	 	-6.900000E-1	-8.474079E-5	1.228127E-4
369	 	-7.000000E-1	-8.656881E-5	1.236697E-4
370	 	-7.100000E-1	-8.830915E-5	1.243791E-4
371	 	-7.200000E-1	-8.997854E-5	1.249702E-4
372	 	-7.300000E-1	-9.158092E-5	1.254533E-4
373	 	-7.400000E-1	-9.340094E-5	1.262175E-4
374	 	-7.500000E-1	-9.559713E-5	1.274628E-4
375	 	-7.600000E-1	-9.774754E-5	1.286152E-4
376	 	-7.700000E-1	-1.002955E-4	1.302539E-4
377	 	-7.800000E-1	-1.026508E-4	1.316036E-4
378	 	-7.900000E-1	-1.053159E-4	1.333113E-4
379	 	-8.000000E-1	-1.081023E-4	1.351279E-4
380	 	-8.100000E-1	-1.110977E-4	1.371577E-4
381	 	-8.200000E-1	-1.142227E-4	1.392960E-4
382	 	-8.300000E-1	-1.172811E-4	1.413025E-4
383	 	-8.400000E-1	-1.203937E-4	1.433258E-4
384	 	-8.500000E-1	-1.239330E-4	1.458035E-4
385	 	-8.600000E-1	-1.279034E-4	1.487249E-4
386	 	-8.700000E-1	-1.321666E-4	1.519156E-4
387	 	-8.800000E-1	-1.370197E-4	1.557042E-4
388	 	-8.900000E-1	-1.424543E-4	1.600610E-4
389	 	-9.000000E-1	-1.483575E-4	1.648417E-4
390	 	-9.100000E-1	-1.550218E-4	1.703536E-4
391	 	-9.200000E-1	-1.623308E-4	1.764465E-4
392	 	-9.300000E-1	-1.702963E-4	1.831143E-4
393	 	-9.400000E-1	-1.789649E-4	1.903882E-4
394	 	-9.500000E-1	-1.882694E-4	1.981783E-4
395	 	-9.600000E-1	-1.986699E-4	2.069478E-4
396	 	-9.700000E-1	-2.096395E-4	2.161232E-4
397	 	-9.800000E-1	-2.212827E-4	2.257987E-4
398	 	-9.900000E-1	-2.335575E-4	2.359167E-4
399	 	-1.000000E+0	-2.465310E-4	2.465310E-4
400	 	-9.900000E-1	-2.410002E-4	2.434345E-4
401	 	-9.800000E-1	-2.349968E-4	2.397927E-4
