Index	"SMU-1 Time (s)"	SMU-1 Voltage (V)	SMU-1 Current (A)	Resistance (Ohm)
1	 	-5.000000E+0	-8.608290E-2	1.721658E-2
2	 	-4.950000E+0	-8.472952E-2	1.711707E-2
3	 	-4.900000E+0	-8.451074E-2	1.724709E-2
4	 	-4.850000E+0	-8.387050E-2	1.729289E-2
5	 	-4.800000E+0	-8.518636E-2	1.774716E-2
6	 	-4.750000E+0	-8.685090E-2	1.828440E-2
7	 	-4.700000E+0	-8.544497E-2	1.817978E-2
8	 	-4.650000E+0	-8.382713E-2	1.802734E-2
9	 	-4.600000E+0	-8.202074E-2	1.783060E-2
10	 	-4.550000E+0	-8.075725E-2	1.774885E-2
11	 	-4.500000E+0	-7.873887E-2	1.749753E-2
12	 	-4.450000E+0	-7.683660E-2	1.726665E-2
13	 	-4.400000E+0	-7.503801E-2	1.705409E-2
14	 	-4.350000E+0	-7.245874E-2	1.665718E-2
15	 	-4.300000E+0	-7.096779E-2	1.650414E-2
16	 	-4.250000E+0	-6.970732E-2	1.640172E-2
17	 	-4.200000E+0	-6.808389E-2	1.621045E-2
18	 	-4.150000E+0	-6.668145E-2	1.606782E-2
19	 	-4.100000E+0	-6.520278E-2	1.590312E-2
20	 	-4.050000E+0	-6.384311E-2	1.576373E-2
21	 	-4.000000E+0	-6.248011E-2	1.562003E-2
22	 	-3.950000E+0	-6.103047E-2	1.545075E-2
23	 	-3.900000E+0	-5.948982E-2	1.525380E-2
24	 	-3.850000E+0	-5.792516E-2	1.504550E-2
25	 	-3.800000E+0	-5.681776E-2	1.495204E-2
26	 	-3.750000E+0	-5.526563E-2	1.473750E-2
27	 	-3.700000E+0	-5.405527E-2	1.460953E-2
28	 	-3.650000E+0	-5.295694E-2	1.450875E-2
29	 	-3.600000E+0	-5.138920E-2	1.427478E-2
30	 	-3.550000E+0	-4.977281E-2	1.402051E-2
31	 	-3.500000E+0	-4.786389E-2	1.367540E-2
32	 	-3.450000E+0	-4.611530E-2	1.336675E-2
33	 	-3.400000E+0	-4.458426E-2	1.311302E-2
34	 	-3.350000E+0	-4.310011E-2	1.286570E-2
35	 	-3.300000E+0	-4.157399E-2	1.259818E-2
36	 	-3.250000E+0	-4.017346E-2	1.236106E-2
37	 	-3.200000E+0	-3.890935E-2	1.215917E-2
38	 	-3.150000E+0	-3.793510E-2	1.204289E-2
39	 	-3.100000E+0	-3.688304E-2	1.189775E-2
40	 	-3.050000E+0	-3.584584E-2	1.175273E-2
41	 	-3.000000E+0	-3.480665E-2	1.160222E-2
42	 	-2.950000E+0	-3.403180E-2	1.153620E-2
43	 	-2.900000E+0	-3.361804E-2	1.159243E-2
44	 	-2.850000E+0	-3.343118E-2	1.173024E-2
45	 	-2.800000E+0	-3.326920E-2	1.188186E-2
46	 	-2.750000E+0	-3.301673E-2	1.200608E-2
47	 	-2.700000E+0	-3.237716E-2	1.199154E-2
48	 	-2.650000E+0	-3.159555E-2	1.192285E-2
49	 	-2.600000E+0	-3.003170E-2	1.155065E-2
50	 	-2.550000E+0	-2.942905E-2	1.154080E-2
51	 	-2.500000E+0	-2.681042E-2	1.072417E-2
52	 	-2.450000E+0	-2.501827E-2	1.021154E-2
53	 	-2.400000E+0	-2.372785E-2	9.886604E-3
54	 	-2.350000E+0	-2.258221E-2	9.609451E-3
55	 	-2.300000E+0	-2.160625E-2	9.394022E-3
56	 	-2.250000E+0	-2.077335E-2	9.232600E-3
57	 	-2.200000E+0	-1.997219E-2	9.078268E-3
58	 	-2.150000E+0	-1.915010E-2	8.907023E-3
59	 	-2.100000E+0	-1.815681E-2	8.646100E-3
60	 	-2.050000E+0	-1.688043E-2	8.234356E-3
61	 	-2.000000E+0	-1.545549E-2	7.727745E-3
62	 	-1.950000E+0	-1.411059E-2	7.236200E-3
63	 	-1.900000E+0	-1.294857E-2	6.815037E-3
64	 	-1.850000E+0	-1.203190E-2	6.503730E-3
65	 	-1.800000E+0	-1.127591E-2	6.264394E-3
66	 	-1.750000E+0	-1.056564E-2	6.037509E-3
67	 	-1.700000E+0	-9.761657E-3	5.742151E-3
68	 	-1.650000E+0	-8.905737E-3	5.397416E-3
69	 	-1.600000E+0	-8.069762E-3	5.043601E-3
70	 	-1.550000E+0	-7.274237E-3	4.693056E-3
71	 	-1.500000E+0	-6.615910E-3	4.410607E-3
72	 	-1.450000E+0	-6.044682E-3	4.168746E-3
73	 	-1.400000E+0	-5.382955E-3	3.844968E-3
74	 	-1.350000E+0	-4.476374E-3	3.315833E-3
75	 	-1.300000E+0	-3.742358E-3	2.878737E-3
76	 	-1.250000E+0	-3.074120E-3	2.459296E-3
77	 	-1.200000E+0	-2.464148E-3	2.053457E-3
78	 	-1.150000E+0	-1.952527E-3	1.697850E-3
79	 	-1.100000E+0	-1.513236E-3	1.375669E-3
80	 	-1.050000E+0	-1.152603E-3	1.097717E-3
81	 	-1.000000E+0	-9.041856E-4	9.041856E-4
82	 	-9.500000E-1	-8.962487E-4	9.434197E-4
83	 	-9.000000E-1	-6.683256E-4	7.425840E-4
84	 	-8.500000E-1	-4.556161E-4	5.360189E-4
85	 	-8.000000E-1	-2.972050E-4	3.715062E-4
86	 	-7.500000E-1	-1.772941E-4	2.363921E-4
87	 	-7.000000E-1	-1.699575E-5	2.427964E-5
88	 	-6.500000E-1	4.703726E-4	-7.236502E-4
89	 	-6.000000E-1	8.268324E-4	-1.378054E-3
90	 	-5.500000E-1	1.118296E-3	-2.033265E-3
91	 	-5.000000E-1	1.235568E-3	-2.471136E-3
92	 	-4.500000E-1	1.295798E-3	-2.879551E-3
93	 	-4.000000E-1	1.557731E-3	-3.894327E-3
94	 	-3.500000E-1	1.941651E-3	-5.547574E-3
95	 	-3.000000E-1	2.373199E-3	-7.910663E-3
96	 	-2.500000E-1	2.825180E-3	-1.130072E-2
97	 	-2.000000E-1	3.301859E-3	-1.650929E-2
98	 	-1.500000E-1	3.678367E-3	-2.452245E-2
99	 	-1.000000E-1	3.398163E-3	-3.398163E-2
100	 	-5.000000E-2	3.053879E-3	-6.107758E-2
101	 	-9.395262E-15	3.025578E-3	-3.220323E+11
102	 	5.000000E-2	3.247056E-3	6.494112E-2
103	 	1.000000E-1	3.590081E-3	3.590081E-2
104	 	1.500000E-1	4.032383E-3	2.688255E-2
105	 	2.000000E-1	4.527099E-3	2.263550E-2
106	 	2.500000E-1	5.039721E-3	2.015888E-2
107	 	3.000000E-1	5.597905E-3	1.865968E-2
108	 	3.500000E-1	6.193870E-3	1.769677E-2
109	 	4.000000E-1	6.843836E-3	1.710959E-2
110	 	4.500000E-1	7.512968E-3	1.669548E-2
111	 	5.000000E-1	8.207331E-3	1.641466E-2
112	 	5.500000E-1	8.987300E-3	1.634055E-2
113	 	6.000000E-1	9.752229E-3	1.625372E-2
114	 	6.500000E-1	1.053995E-2	1.621531E-2
115	 	7.000000E-1	1.135273E-2	1.621819E-2
116	 	7.500000E-1	1.215595E-2	1.620793E-2
117	 	8.000000E-1	1.295720E-2	1.619650E-2
118	 	8.500000E-1	1.374014E-2	1.616487E-2
119	 	9.000000E-1	1.455751E-2	1.617501E-2
120	 	9.500000E-1	1.538168E-2	1.619124E-2
121	 	1.000000E+0	1.616282E-2	1.616282E-2
122	 	1.050000E+0	1.689466E-2	1.609015E-2
123	 	1.100000E+0	1.766086E-2	1.605533E-2
124	 	1.150000E+0	1.842353E-2	1.602046E-2
125	 	1.200000E+0	1.917639E-2	1.598033E-2
126	 	1.250000E+0	1.998002E-2	1.598402E-2
127	 	1.300000E+0	2.070026E-2	1.592328E-2
128	 	1.350000E+0	2.133875E-2	1.580648E-2
129	 	1.400000E+0	2.197717E-2	1.569798E-2
130	 	1.450000E+0	2.297083E-2	1.584195E-2
131	 	1.500000E+0	2.340815E-2	1.560543E-2
132	 	1.550000E+0	2.374993E-2	1.532254E-2
133	 	1.600000E+0	2.406970E-2	1.504356E-2
134	 	1.650000E+0	2.421846E-2	1.467785E-2
135	 	1.700000E+0	2.443235E-2	1.437197E-2
136	 	1.750000E+0	2.456903E-2	1.403945E-2
137	 	1.800000E+0	2.462735E-2	1.368186E-2
138	 	1.850000E+0	2.472032E-2	1.336234E-2
139	 	1.900000E+0	2.481948E-2	1.306288E-2
140	 	1.950000E+0	2.497038E-2	1.280532E-2
141	 	2.000000E+0	2.491992E-2	1.245996E-2
142	 	2.050000E+0	2.459699E-2	1.199853E-2
143	 	2.100000E+0	2.411919E-2	1.148533E-2
144	 	2.150000E+0	2.352946E-2	1.094393E-2
145	 	2.200000E+0	2.338032E-2	1.062742E-2
146	 	2.250000E+0	2.232535E-2	9.922378E-3
147	 	2.300000E+0	2.143988E-2	9.321687E-3
148	 	2.350000E+0	2.062272E-2	8.775626E-3
149	 	2.400000E+0	1.988015E-2	8.283396E-3
150	 	2.450000E+0	1.922280E-2	7.846041E-3
151	 	2.500000E+0	1.866292E-2	7.465168E-3
152	 	2.550000E+0	1.831285E-2	7.181510E-3
153	 	2.600000E+0	1.800763E-2	6.926012E-3
154	 	2.650000E+0	1.772064E-2	6.687034E-3
155	 	2.700000E+0	1.747266E-2	6.471356E-3
156	 	2.750000E+0	1.730869E-2	6.294069E-3
157	 	2.800000E+0	1.716888E-2	6.131743E-3
158	 	2.850000E+0	1.708234E-2	5.993804E-3
159	 	2.900000E+0	1.696179E-2	5.848893E-3
160	 	2.950000E+0	1.727604E-2	5.856285E-3
161	 	3.000000E+0	1.702030E-2	5.673433E-3
162	 	3.050000E+0	1.682301E-2	5.515741E-3
163	 	3.100000E+0	1.671437E-2	5.391732E-3
164	 	3.150000E+0	1.664201E-2	5.283178E-3
165	 	3.200000E+0	1.662298E-2	5.194681E-3
166	 	3.250000E+0	1.660253E-2	5.108471E-3
167	 	3.300000E+0	1.663482E-2	5.040855E-3
168	 	3.350000E+0	1.666666E-2	4.975122E-3
169	 	3.400000E+0	1.671346E-2	4.915724E-3
170	 	3.450000E+0	1.677698E-2	4.862893E-3
171	 	3.500000E+0	1.688323E-2	4.823780E-3
172	 	3.550000E+0	1.697905E-2	4.782831E-3
173	 	3.600000E+0	1.708942E-2	4.747061E-3
174	 	3.650000E+0	1.717742E-2	4.706142E-3
175	 	3.700000E+0	1.728908E-2	4.672724E-3
176	 	3.750000E+0	1.742069E-2	4.645517E-3
177	 	3.800000E+0	1.754410E-2	4.616868E-3
178	 	3.850000E+0	1.767235E-2	4.590221E-3
179	 	3.900000E+0	1.780214E-2	4.564651E-3
180	 	3.950000E+0	1.802493E-2	4.563273E-3
181	 	4.000000E+0	1.820081E-2	4.550203E-3
182	 	4.050000E+0	1.832698E-2	4.525180E-3
183	 	4.100000E+0	1.850335E-2	4.513012E-3
184	 	4.150000E+0	1.864760E-2	4.493398E-3
185	 	4.200000E+0	1.881193E-2	4.479031E-3
186	 	4.250000E+0	1.900558E-2	4.471901E-3
187	 	4.300000E+0	1.920334E-2	4.465893E-3
188	 	4.350000E+0	1.939617E-2	4.458890E-3
189	 	4.400000E+0	1.956024E-2	4.445509E-3
190	 	4.450000E+0	1.972915E-2	4.433517E-3
191	 	4.500000E+0	1.993631E-2	4.430291E-3
192	 	4.550000E+0	2.013494E-2	4.425262E-3
193	 	4.600000E+0	2.039094E-2	4.432813E-3
194	 	4.650000E+0	2.069663E-2	4.450888E-3
195	 	4.700000E+0	2.114733E-2	4.499432E-3
196	 	4.750000E+0	2.135224E-2	4.495208E-3
197	 	4.800000E+0	2.157163E-2	4.494090E-3
198	 	4.850000E+0	2.179000E-2	4.492784E-3
199	 	4.900000E+0	2.210622E-2	4.511473E-3
200	 	4.950000E+0	2.243167E-2	4.531651E-3
201	 	5.000000E+0	2.253434E-2	4.506868E-3
202	 	4.950000E+0	2.200383E-2	4.445218E-3
203	 	4.900000E+0	2.176850E-2	4.442551E-3
204	 	4.850000E+0	2.138769E-2	4.409833E-3
205	 	4.800000E+0	2.097932E-2	4.370692E-3
206	 	4.750000E+0	2.061216E-2	4.339402E-3
207	 	4.700000E+0	2.031510E-2	4.322362E-3
208	 	4.650000E+0	1.991216E-2	4.282185E-3
209	 	4.600000E+0	1.959633E-2	4.260072E-3
210	 	4.550000E+0	1.929431E-2	4.240508E-3
211	 	4.500000E+0	1.891883E-2	4.204184E-3
212	 	4.450000E+0	1.855574E-2	4.169829E-3
213	 	4.400000E+0	1.825011E-2	4.147752E-3
214	 	4.350000E+0	1.789493E-2	4.113777E-3
215	 	4.300000E+0	1.753307E-2	4.077458E-3
216	 	4.250000E+0	1.720691E-2	4.048685E-3
217	 	4.200000E+0	1.697959E-2	4.042760E-3
218	 	4.150000E+0	1.669948E-2	4.023971E-3
219	 	4.100000E+0	1.649776E-2	4.023844E-3
220	 	4.050000E+0	1.625140E-2	4.012691E-3
221	 	4.000000E+0	1.589122E-2	3.972805E-3
222	 	3.950000E+0	1.565607E-2	3.963562E-3
223	 	3.900000E+0	1.540436E-2	3.949836E-3
224	 	3.850000E+0	1.511879E-2	3.926958E-3
225	 	3.800000E+0	1.486427E-2	3.911650E-3
226	 	3.750000E+0	1.458001E-2	3.888003E-3
227	 	3.700000E+0	1.436573E-2	3.882630E-3
228	 	3.650000E+0	1.410242E-2	3.863677E-3
229	 	3.600000E+0	1.389282E-2	3.859117E-3
230	 	3.550000E+0	1.364072E-2	3.842456E-3
231	 	3.500000E+0	1.335591E-2	3.815974E-3
232	 	3.450000E+0	1.326189E-2	3.844026E-3
233	 	3.400000E+0	1.297672E-2	3.816682E-3
234	 	3.350000E+0	1.270857E-2	3.793603E-3
235	 	3.300000E+0	1.238495E-2	3.753015E-3
236	 	3.250000E+0	1.213570E-2	3.734062E-3
237	 	3.200000E+0	1.191850E-2	3.724531E-3
238	 	3.150000E+0	1.169648E-2	3.713168E-3
239	 	3.100000E+0	1.155911E-2	3.728745E-3
240	 	3.050000E+0	1.136138E-2	3.725043E-3
241	 	3.000000E+0	1.117152E-2	3.723840E-3
242	 	2.950000E+0	1.099118E-2	3.725824E-3
243	 	2.900000E+0	1.079806E-2	3.723469E-3
244	 	2.850000E+0	1.057721E-2	3.711302E-3
245	 	2.800000E+0	1.031749E-2	3.684818E-3
246	 	2.750000E+0	1.003822E-2	3.650262E-3
247	 	2.700000E+0	9.756417E-3	3.613488E-3
248	 	2.650000E+0	9.456003E-3	3.568303E-3
249	 	2.600000E+0	9.098292E-3	3.499343E-3
250	 	2.550000E+0	8.769252E-3	3.438922E-3
251	 	2.500000E+0	8.492377E-3	3.396951E-3
252	 	2.450000E+0	8.208469E-3	3.350396E-3
253	 	2.400000E+0	7.945052E-3	3.310438E-3
254	 	2.350000E+0	7.712113E-3	3.281750E-3
255	 	2.300000E+0	7.506582E-3	3.263731E-3
256	 	2.250000E+0	7.310109E-3	3.248937E-3
257	 	2.200000E+0	7.123438E-3	3.237926E-3
258	 	2.150000E+0	6.969803E-3	3.241769E-3
259	 	2.100000E+0	6.908837E-3	3.289922E-3
260	 	2.050000E+0	6.871293E-3	3.351850E-3
261	 	2.000000E+0	6.771913E-3	3.385957E-3
262	 	1.950000E+0	6.585393E-3	3.377125E-3
263	 	1.900000E+0	6.295871E-3	3.313616E-3
264	 	1.850000E+0	5.968049E-3	3.225972E-3
265	 	1.800000E+0	5.685363E-3	3.158535E-3
266	 	1.750000E+0	5.401223E-3	3.086413E-3
267	 	1.700000E+0	5.158760E-3	3.034565E-3
268	 	1.650000E+0	4.926650E-3	2.985848E-3
269	 	1.600000E+0	4.690538E-3	2.931586E-3
270	 	1.550000E+0	4.461895E-3	2.878642E-3
271	 	1.500000E+0	4.219880E-3	2.813253E-3
272	 	1.450000E+0	3.968480E-3	2.736883E-3
273	 	1.400000E+0	3.722692E-3	2.659066E-3
274	 	1.350000E+0	3.511572E-3	2.601164E-3
275	 	1.300000E+0	3.256225E-3	2.504788E-3
276	 	1.250000E+0	3.003260E-3	2.402608E-3
277	 	1.200000E+0	2.784905E-3	2.320754E-3
278	 	1.150000E+0	2.560704E-3	2.226699E-3
279	 	1.100000E+0	2.353418E-3	2.139471E-3
280	 	1.050000E+0	2.153382E-3	2.050840E-3
281	 	1.000000E+0	1.983231E-3	1.983231E-3
282	 	9.500000E-1	1.937684E-3	2.039667E-3
283	 	9.000000E-1	1.775190E-3	1.972433E-3
284	 	8.500000E-1	1.495942E-3	1.759932E-3
285	 	8.000000E-1	1.227130E-3	1.533913E-3
286	 	7.500000E-1	9.842284E-4	1.312305E-3
287	 	7.000000E-1	8.045672E-4	1.149382E-3
288	 	6.500000E-1	6.465223E-4	9.946497E-4
289	 	6.000000E-1	5.370915E-4	8.951525E-4
290	 	5.500000E-1	4.338731E-4	7.888602E-4
291	 	5.000000E-1	2.917013E-4	5.834026E-4
292	 	4.500000E-1	1.073132E-4	2.384738E-4
293	 	4.000000E-1	-8.525191E-5	-2.131298E-4
294	 	3.500000E-1	-2.481692E-4	-7.090549E-4
295	 	3.000000E-1	-3.710838E-4	-1.236946E-3
296	 	2.500000E-1	-4.567959E-4	-1.827184E-3
297	 	2.000000E-1	-5.300888E-4	-2.650444E-3
298	 	1.500000E-1	-6.138801E-4	-4.092534E-3
299	 	1.000000E-1	-7.123735E-4	-7.123735E-3
300	 	5.000000E-2	-8.390244E-4	-1.678049E-2
301	 	-9.423018E-15	-8.878746E-4	9.422402E+10
302	 	-5.000000E-2	-9.144858E-4	1.828972E-2
303	 	-1.000000E-1	-9.156562E-4	9.156562E-3
304	 	-1.500000E-1	-9.225435E-4	6.150290E-3
305	 	-2.000000E-1	-9.418053E-4	4.709026E-3
306	 	-2.500000E-1	-9.278026E-4	3.711210E-3
307	 	-3.000000E-1	-9.163550E-4	3.054517E-3
308	 	-3.500000E-1	-9.082265E-4	2.594933E-3
309	 	-4.000000E-1	-8.986861E-4	2.246715E-3
310	 	-4.500000E-1	-8.966693E-4	1.992598E-3
311	 	-5.000000E-1	-9.034143E-4	1.806829E-3
312	 	-5.500000E-1	-9.029246E-4	1.641681E-3
313	 	-6.000000E-1	-9.058582E-4	1.509764E-3
314	 	-6.500000E-1	-9.162028E-4	1.409543E-3
315	 	-7.000000E-1	-9.403040E-4	1.343291E-3
316	 	-7.500000E-1	-9.527343E-4	1.270312E-3
317	 	-8.000000E-1	-9.834851E-4	1.229356E-3
318	 	-8.500000E-1	-1.017027E-3	1.196502E-3
319	 	-9.000000E-1	-1.068637E-3	1.187374E-3
320	 	-9.500000E-1	-1.124476E-3	1.183659E-3
321	 	-1.000000E+0	-1.201518E-3	1.201518E-3
322	 	-1.050000E+0	-1.294179E-3	1.232551E-3
323	 	-1.100000E+0	-1.381961E-3	1.256328E-3
324	 	-1.150000E+0	-1.484833E-3	1.291159E-3
325	 	-1.200000E+0	-1.595857E-3	1.329881E-3
326	 	-1.250000E+0	-1.720222E-3	1.376178E-3
327	 	-1.300000E+0	-1.869449E-3	1.438038E-3
328	 	-1.350000E+0	-2.073856E-3	1.536190E-3
329	 	-1.400000E+0	-2.383054E-3	1.702181E-3
330	 	-1.450000E+0	-2.733320E-3	1.885048E-3
331	 	-1.500000E+0	-3.093949E-3	2.062633E-3
332	 	-1.550000E+0	-3.451762E-3	2.226943E-3
333	 	-1.600000E+0	-3.809689E-3	2.381056E-3
334	 	-1.650000E+0	-4.202134E-3	2.546748E-3
335	 	-1.700000E+0	-4.649750E-3	2.735147E-3
336	 	-1.750000E+0	-5.198499E-3	2.970571E-3
337	 	-1.800000E+0	-5.839596E-3	3.244220E-3
338	 	-1.850000E+0	-6.552618E-3	3.541956E-3
339	 	-1.900000E+0	-7.298559E-3	3.841347E-3
340	 	-1.950000E+0	-8.080339E-3	4.143764E-3
341	 	-2.000000E+0	-8.928043E-3	4.464021E-3
342	 	-2.050000E+0	-9.802473E-3	4.781694E-3
343	 	-2.100000E+0	-1.069411E-2	5.092433E-3
344	 	-2.150000E+0	-1.161747E-2	5.403474E-3
345	 	-2.200000E+0	-1.256773E-2	5.712605E-3
346	 	-2.250000E+0	-1.355620E-2	6.024978E-3
347	 	-2.300000E+0	-1.455277E-2	6.327291E-3
348	 	-2.350000E+0	-1.558053E-2	6.630013E-3
349	 	-2.400000E+0	-1.662992E-2	6.929133E-3
350	 	-2.450000E+0	-1.768189E-2	7.217098E-3
351	 	-2.500000E+0	-1.877420E-2	7.509680E-3
352	 	-2.550000E+0	-1.987653E-2	7.794718E-3
353	 	-2.600000E+0	-2.097539E-2	8.067458E-3
354	 	-2.650000E+0	-2.210351E-2	8.340947E-3
355	 	-2.700000E+0	-2.320750E-2	8.595370E-3
356	 	-2.750000E+0	-2.426181E-2	8.822476E-3
357	 	-2.800000E+0	-2.528078E-2	9.028850E-3
358	 	-2.850000E+0	-2.626757E-2	9.216691E-3
359	 	-2.900000E+0	-2.726905E-2	9.403121E-3
360	 	-2.950000E+0	-2.818218E-2	9.553281E-3
361	 	-3.000000E+0	-2.905691E-2	9.685637E-3
362	 	-3.050000E+0	-2.998753E-2	9.831977E-3
363	 	-3.100000E+0	-3.101796E-2	1.000579E-2
364	 	-3.150000E+0	-3.211449E-2	1.019508E-2
365	 	-3.200000E+0	-3.323183E-2	1.038495E-2
366	 	-3.250000E+0	-3.436340E-2	1.057335E-2
367	 	-3.300000E+0	-3.533063E-2	1.070625E-2
368	 	-3.350000E+0	-3.632348E-2	1.084283E-2
369	 	-3.400000E+0	-3.753727E-2	1.104037E-2
370	 	-3.450000E+0	-3.905752E-2	1.132102E-2
371	 	-3.500000E+0	-4.033561E-2	1.152446E-2
372	 	-3.550000E+0	-4.144496E-2	1.167464E-2
373	 	-3.600000E+0	-4.265086E-2	1.184746E-2
374	 	-3.650000E+0	-4.391636E-2	1.203188E-2
375	 	-3.700000E+0	-4.536631E-2	1.226116E-2
376	 	-3.750000E+0	-4.673201E-2	1.246187E-2
377	 	-3.800000E+0	-4.786674E-2	1.259651E-2
378	 	-3.850000E+0	-4.903983E-2	1.273762E-2
379	 	-3.900000E+0	-5.028154E-2	1.289270E-2
380	 	-3.950000E+0	-5.154375E-2	1.304905E-2
381	 	-4.000000E+0	-5.267817E-2	1.316954E-2
382	 	-4.050000E+0	-5.438558E-2	1.342854E-2
383	 	-4.100000E+0	-5.575025E-2	1.359762E-2
384	 	-4.150000E+0	-5.719521E-2	1.378198E-2
385	 	-4.200000E+0	-5.861061E-2	1.395491E-2
386	 	-4.250000E+0	-6.007872E-2	1.413617E-2
387	 	-4.300000E+0	-6.142100E-2	1.428395E-2
388	 	-4.350000E+0	-6.282818E-2	1.444326E-2
389	 	-4.400000E+0	-6.475440E-2	1.471691E-2
390	 	-4.450000E+0	-6.917134E-2	1.554412E-2
391	 	-4.500000E+0	-7.249337E-2	1.610964E-2
392	 	-4.550000E+0	-7.467338E-2	1.641173E-2
393	 	-4.600000E+0	-7.634172E-2	1.659603E-2
394	 	-4.650000E+0	-7.816031E-2	1.680867E-2
395	 	-4.700000E+0	-7.968728E-2	1.695474E-2
396	 	-4.750000E+0	-8.112413E-2	1.707876E-2
397	 	-4.800000E+0	-8.261988E-2	1.721247E-2
398	 	-4.850000E+0	-8.500627E-2	1.752707E-2
399	 	-4.900000E+0	-8.661693E-2	1.767692E-2
400	 	-4.950000E+0	-8.777579E-2	1.773248E-2
401	 	-5.000000E+0	-8.929157E-2	1.785831E-2
